current[mA],power[mW],voltage[V],mpd_current[mA]
1,-0.025,0.7658,-7.878e-05
2,-0.000,0.7861,-9.568e-05
3,-0.000,0.8007,-0.0001108
4,-0.049,0.8131,-0.000126
5,-0.000,0.8234,-0.0001405
6,-0.000,0.8324,-0.0001546
7,0.025,0.8408,-0.0001688
8,0.025,0.8484,-0.0001842
9,0.025,0.8556,-0.0001995
10,-0.000,0.8624,-0.0002159
11,0.025,0.8686,-0.000234
12,0.049,0.8747,-0.0002524
13,0.025,0.8805,-0.000273
14,0.074,0.8860,-0.0002953
15,0.049,0.8913,-0.0003198
16,0.074,0.8965,-0.0003474
17,0.049,0.9014,-0.0003884
18,0.295,0.9055,-0.0008913
19,0.811,0.9090,-0.001971
20,1.254,0.9124,-0.003027
21,1.771,0.9159,-0.00409
22,2.213,0.9194,-0.005149
23,2.681,0.9230,-0.006179
24,3.123,0.9264,-0.007145
25,3.517,0.9299,-0.008182
26,3.959,0.9334,-0.009209
27,4.353,0.9369,-0.01022
28,4.795,0.9404,-0.01118
29,5.189,0.9437,-0.01217
30,5.582,0.9471,-0.01313
31,5.976,0.9505,-0.01409
32,6.369,0.9539,-0.01506
33,6.763,0.9573,-0.01601
34,7.181,0.9607,-0.01696
35,7.525,0.9640,-0.0179
36,7.894,0.9673,-0.01884
37,8.288,0.9706,-0.01978
38,8.656,0.9738,-0.02068
39,9.050,0.9771,-0.02165
40,9.443,0.9804,-0.02258
41,9.739,0.9836,-0.02348
42,10.181,0.9867,-0.0244
43,10.550,0.9899,-0.02531
44,10.821,0.9930,-0.02619
45,11.190,0.9962,-0.02711
46,11.608,0.9994,-0.02806
47,11.952,1.0025,-0.02893
48,12.321,1.0056,-0.02983
49,12.640,1.0087,-0.03077
50,13.059,1.0117,-0.03164
51,13.329,1.0147,-0.0325
52,13.747,1.0177,-0.03343
53,14.042,1.0206,-0.03425
54,14.485,1.0236,-0.03519
55,14.829,1.0266,-0.03609
56,15.124,1.0295,-0.03694
57,15.419,1.0324,-0.03786
58,15.788,1.0353,-0.03868
59,16.108,1.0380,-0.03953
60,16.551,1.0409,-0.04039
61,16.846,1.0438,-0.04129
62,17.166,1.0465,-0.04212
63,17.534,1.0493,-0.04297
64,17.854,1.0521,-0.04381
65,18.174,1.0547,-0.04465
66,18.494,1.0575,-0.04547
67,18.789,1.0603,-0.04635
68,19.231,1.0629,-0.04712
69,19.502,1.0656,-0.04796
70,19.822,1.0683,-0.04882
71,20.190,1.0709,-0.04963
72,20.510,1.0736,-0.05044
73,20.781,1.0761,-0.05128
74,21.150,1.0788,-0.05207
75,21.469,1.0813,-0.05291
76,21.814,1.0838,-0.05367
77,22.059,1.0863,-0.05454
78,22.428,1.0889,-0.05533
79,22.748,1.0913,-0.05614
80,23.019,1.0938,-0.05697
81,23.412,1.0963,-0.05776
82,23.781,1.0987,-0.05856
83,24.027,1.1012,-0.05934
84,24.297,1.1036,-0.06018
85,24.715,1.1060,-0.06095
86,24.937,1.1084,-0.06174
87,25.232,1.1108,-0.06246
88,25.552,1.1130,-0.06322
89,25.871,1.1154,-0.06399
90,26.191,1.1177,-0.06471
91,26.437,1.1199,-0.06549
92,26.781,1.1223,-0.0662
93,27.101,1.1246,-0.06698
94,27.322,1.1268,-0.06772
95,27.691,1.1291,-0.06841
96,28.035,1.1313,-0.06922
97,28.306,1.1335,-0.06996
98,28.576,1.1358,-0.07074
99,28.872,1.1380,-0.07149
100,29.191,1.1401,-0.0722
101,29.462,1.1423,-0.07293
102,29.781,1.1445,-0.07369
103,30.052,1.1465,-0.07445
104,30.347,1.1487,-0.07514
105,30.642,1.1508,-0.07586
106,30.913,1.1529,-0.07657
107,31.183,1.1549,-0.07727
108,31.454,1.1570,-0.07801
109,31.823,1.1590,-0.0787
110,32.069,1.1611,-0.07946
111,32.388,1.1631,-0.08007
112,32.683,1.1652,-0.0808
113,32.929,1.1672,-0.0815
114,33.249,1.1692,-0.08216
115,33.470,1.1712,-0.0828
116,33.741,1.1731,-0.08352
117,34.036,1.1751,-0.08419
118,34.307,1.1770,-0.08485
119,34.651,1.1789,-0.08557
120,34.897,1.1808,-0.08623
121,35.167,1.1828,-0.08688
122,35.413,1.1847,-0.0876
123,35.684,1.1865,-0.0882
124,35.979,1.1884,-0.08892
125,36.225,1.1903,-0.08965
126,36.544,1.1921,-0.09025
127,36.815,1.1940,-0.09094
128,37.061,1.1958,-0.09157
129,37.282,1.1977,-0.09219
130,37.553,1.1995,-0.09292
131,37.872,1.2013,-0.09358
132,38.118,1.2031,-0.09419
133,38.413,1.2049,-0.09481
134,38.684,1.2067,-0.09539
135,38.905,1.2084,-0.09608
136,39.200,1.2102,-0.09668
137,39.446,1.2119,-0.09734
138,39.741,1.2136,-0.0979
139,39.963,1.2154,-0.09853
140,40.209,1.2171,-0.09919
141,40.504,1.2188,-0.09975
142,40.750,1.2206,-0.1004
143,40.996,1.2222,-0.101
144,41.266,1.2239,-0.1016
145,41.512,1.2256,-0.1023
146,41.709,1.2272,-0.1028
147,41.930,1.2289,-0.1035
148,42.250,1.2306,-0.1041
149,42.496,1.2322,-0.1047
150,42.742,1.2338,-0.1053
151,42.988,1.2355,-0.1059
152,43.283,1.2371,-0.1065
153,43.480,1.2387,-0.107
154,43.725,1.2403,-0.1076
155,43.996,1.2419,-0.1082
156,44.242,1.2435,-0.1088
157,44.537,1.2451,-0.1093
158,44.734,1.2467,-0.1099
159,45.004,1.2483,-0.1105
160,45.250,1.2498,-0.1111
161,45.447,1.2514,-0.1115
162,45.693,1.2529,-0.1122
163,45.914,1.2545,-0.1128
164,46.185,1.2560,-0.1133
165,46.431,1.2575,-0.1139
166,46.627,1.2591,-0.1145
167,46.923,1.2605,-0.115
168,47.119,1.2620,-0.1156
169,47.365,1.2636,-0.1162
170,47.587,1.2650,-0.1168
171,47.882,1.2666,-0.1173
172,48.054,1.2681,-0.1178
173,48.275,1.2695,-0.1183
174,48.546,1.2710,-0.1189
175,48.718,1.2725,-0.1194
176,48.964,1.2738,-0.1198
177,49.160,1.2753,-0.1205
178,49.431,1.2768,-0.1209
179,49.701,1.2782,-0.1214
180,49.849,1.2796,-0.1219
181,50.095,1.2810,-0.1225
182,50.316,1.2825,-0.123
183,50.538,1.2839,-0.1235
184,50.808,1.2853,-0.1241
185,51.054,1.2867,-0.1246
186,51.202,1.2881,-0.1252
187,51.472,1.2895,-0.1257
188,51.669,1.2909,-0.1262
189,51.915,1.2923,-0.1268
190,52.112,1.2936,-0.1273
191,52.333,1.2950,-0.1277
192,52.530,1.2964,-0.1283
193,52.726,1.2977,-0.1286
194,53.021,1.2991,-0.1292
195,53.194,1.3005,-0.1296
196,53.366,1.3018,-0.1302
197,53.685,1.3031,-0.1306
198,53.858,1.3045,-0.131
199,54.054,1.3058,-0.1315
200,54.251,1.3071,-0.1321
201,54.472,1.3084,-0.1325
202,54.694,1.3097,-0.133
203,54.891,1.3110,-0.1335
204,55.087,1.3123,-0.134
205,55.333,1.3136,-0.1345
206,55.554,1.3149,-0.135
207,55.727,1.3162,-0.1354
208,55.874,1.3175,-0.1359
209,56.145,1.3188,-0.1364
210,56.391,1.3201,-0.1368
211,56.587,1.3213,-0.1373
212,56.710,1.3226,-0.1377
213,56.956,1.3239,-0.1381
214,57.128,1.3251,-0.1385
215,57.276,1.3264,-0.139
216,57.522,1.3276,-0.1394
217,57.719,1.3289,-0.1399
218,57.965,1.3301,-0.1403
219,58.161,1.3314,-0.1408
220,58.333,1.3326,-0.1413
221,58.506,1.3339,-0.1417
222,58.752,1.3351,-0.1422
223,58.924,1.3363,-0.1426
224,59.120,1.3375,-0.1431
225,59.317,1.3387,-0.1435
226,59.489,1.3399,-0.144
227,59.686,1.3412,-0.1444
228,59.932,1.3424,-0.1448
229,60.129,1.3436,-0.1452
230,60.276,1.3448,-0.1455
231,60.498,1.3460,-0.1459
232,60.645,1.3471,-0.1463
233,60.891,1.3483,-0.1467
234,61.088,1.3495,-0.1472
235,61.235,1.3507,-0.1475
236,61.432,1.3519,-0.148
237,61.629,1.3531,-0.1484
238,61.752,1.3542,-0.1488
239,61.899,1.3554,-0.1492
240,62.145,1.3565,-0.1499
241,62.342,1.3577,-0.1502
242,62.490,1.3589,-0.1505
243,62.711,1.3600,-0.151
244,62.908,1.3612,-0.1514
245,63.055,1.3623,-0.1516
246,63.203,1.3635,-0.152
247,63.424,1.3646,-0.1524
248,63.670,1.3658,-0.1527
249,63.842,1.3669,-0.1531
250,64.039,1.3680,-0.1535
251,64.186,1.3692,-0.1539
252,64.334,1.3703,-0.1542
253,64.555,1.3714,-0.1547
254,64.703,1.3725,-0.1552
255,64.875,1.3736,-0.1555
256,65.121,1.3748,-0.1559
257,65.219,1.3758,-0.1563
258,65.416,1.3770,-0.1567
259,65.613,1.3781,-0.157
260,65.711,1.3792,-0.1573
261,65.933,1.3803,-0.1578
262,66.105,1.3814,-0.158
263,66.228,1.3824,-0.1584
264,66.449,1.3836,-0.1588
265,66.597,1.3846,-0.1591
266,66.769,1.3857,-0.1593
267,66.941,1.3868,-0.1597
268,67.113,1.3879,-0.1601
269,67.285,1.3889,-0.1604
270,67.433,1.3900,-0.1609
271,67.556,1.3911,-0.1612
272,67.777,1.3921,-0.1615
273,67.925,1.3932,-0.1619
274,68.072,1.3943,-0.1622
275,68.244,1.3953,-0.1627
276,68.441,1.3964,-0.1628
277,68.638,1.3975,-0.1633
278,68.761,1.3985,-0.1636
279,68.933,1.3996,-0.1639
280,69.031,1.4006,-0.1642
281,69.253,1.4016,-0.1644
282,69.400,1.4027,-0.1648
283,69.498,1.4037,-0.1652
284,69.695,1.4047,-0.1655
285,69.867,1.4058,-0.1657
286,70.040,1.4068,-0.166
287,70.187,1.4078,-0.1664
288,70.285,1.4088,-0.1668
289,70.531,1.4098,-0.167
290,70.654,1.4109,-0.1674
291,70.826,1.4119,-0.1677
292,70.949,1.4129,-0.1679
293,71.122,1.4139,-0.1682
294,71.220,1.4149,-0.1687
295,71.392,1.4159,-0.1689
296,71.638,1.4169,-0.1693
297,71.736,1.4180,-0.1695
298,71.859,1.4189,-0.1698
299,72.032,1.4199,-0.17
300,72.130,1.4210,-0.1704
301,72.327,1.4219,-0.1705
302,72.474,1.4229,-0.1709
303,72.622,1.4239,-0.1711
304,72.745,1.4249,-0.1714
305,72.868,1.4259,-0.1718
306,73.064,1.4269,-0.1721
307,73.138,1.4278,-0.1723
308,73.360,1.4288,-0.1726
309,73.482,1.4298,-0.1729
310,73.605,1.4307,-0.1732
311,73.778,1.4317,-0.1735
312,73.925,1.4327,-0.1737
313,74.024,1.4337,-0.174
314,74.171,1.4346,-0.1743
315,74.319,1.4356,-0.1745
316,74.442,1.4365,-0.1748
317,74.565,1.4375,-0.1749
318,74.712,1.4385,-0.1753
319,74.860,1.4394,-0.1755
320,75.032,1.4404,-0.1757
321,75.130,1.4413,-0.1761
322,75.302,1.4422,-0.1763
323,75.401,1.4432,-0.1766
324,75.524,1.4441,-0.1769
325,75.622,1.4451,-0.1771
326,75.794,1.4460,-0.1774
327,75.917,1.4469,-0.1777
328,76.114,1.4479,-0.178
329,76.212,1.4488,-0.1781
330,76.360,1.4497,-0.1783
331,76.434,1.4507,-0.1786
332,76.630,1.4516,-0.1787
333,76.729,1.4525,-0.179
334,76.827,1.4534,-0.1792
335,76.950,1.4543,-0.1794
336,77.098,1.4552,-0.1798
337,77.196,1.4562,-0.1801
338,77.319,1.4571,-0.1803
339,77.491,1.4580,-0.1805
340,77.589,1.4589,-0.1808
341,77.712,1.4599,-0.181
342,77.835,1.4607,-0.1813
343,77.909,1.4616,-0.1814
344,78.106,1.4625,-0.1817
345,78.204,1.4634,-0.1818
346,78.376,1.4643,-0.1821
347,78.426,1.4652,-0.1822
348,78.549,1.4661,-0.1824
349,78.721,1.4670,-0.1827
350,78.794,1.4679,-0.1828
351,78.942,1.4688,-0.1831
352,78.991,1.4697,-0.1834
353,79.114,1.4706,-0.1836
354,79.262,1.4714,-0.1839
355,79.385,1.4723,-0.1841
356,79.532,1.4732,-0.1842
357,79.581,1.4741,-0.1845
358,79.754,1.4749,-0.1848
359,79.827,1.4758,-0.1849
360,79.975,1.4767,-0.1851
361,80.098,1.4775,-0.1852
362,80.221,1.4784,-0.1854
363,80.344,1.4793,-0.1857
364,80.393,1.4802,-0.1859
365,80.467,1.4810,-0.1861
366,80.688,1.4819,-0.1863
367,80.762,1.4827,-0.1866
368,80.885,1.4836,-0.1867
369,81.008,1.4844,-0.187
370,81.106,1.4853,-0.1871
371,81.131,1.4862,-0.1874
372,81.278,1.4870,-0.1875
373,81.352,1.4878,-0.1877
374,81.549,1.4887,-0.1879
375,81.573,1.4895,-0.1881
376,81.696,1.4904,-0.1881
377,81.770,1.4912,-0.1884
378,81.942,1.4921,-0.1885
379,81.991,1.4929,-0.1888
380,82.188,1.4937,-0.189
381,82.237,1.4946,-0.1892
382,82.360,1.4954,-0.1894
383,82.483,1.4962,-0.1895
384,82.533,1.4971,-0.1898
385,82.655,1.4979,-0.1898
386,82.754,1.4987,-0.1901
387,82.852,1.4996,-0.1902
388,82.951,1.5004,-0.1903
389,83.024,1.5012,-0.1906
390,83.197,1.5020,-0.1907
391,83.221,1.5028,-0.1909
392,83.320,1.5036,-0.1911
393,83.492,1.5045,-0.1913
394,83.516,1.5053,-0.1916
395,83.688,1.5061,-0.1916
396,83.738,1.5069,-0.1918
397,83.811,1.5077,-0.192
398,83.959,1.5085,-0.1922
399,84.008,1.5093,-0.1923
400,84.082,1.5101,-0.1926
401,84.156,1.5109,-0.1927
402,84.279,1.5117,-0.1928
403,84.426,1.5125,-0.1929
404,84.451,1.5133,-0.1931
405,84.549,1.5141,-0.1932
406,84.697,1.5149,-0.1935
407,84.746,1.5157,-0.1935
408,84.844,1.5165,-0.1938
409,84.918,1.5173,-0.194
410,84.992,1.5181,-0.1941
411,85.090,1.5189,-0.1941
412,85.189,1.5196,-0.1945
413,85.238,1.5204,-0.1945
414,85.361,1.5212,-0.1948
415,85.484,1.5220,-0.1947
416,85.508,1.5228,-0.1951
417,85.607,1.5236,-0.1952
418,85.680,1.5243,-0.1954
419,85.779,1.5251,-0.1956
420,85.902,1.5259,-0.1957
421,85.951,1.5267,-0.1959
422,86.025,1.5274,-0.196
423,86.172,1.5282,-0.1963
424,86.197,1.5290,-0.1963
425,86.271,1.5297,-0.1965
426,86.320,1.5305,-0.1966
427,86.418,1.5313,-0.1967
428,86.517,1.5320,-0.197
429,86.590,1.5328,-0.197
430,86.738,1.5336,-0.1973
431,86.738,1.5343,-0.1974
432,86.812,1.5350,-0.1975
433,86.935,1.5358,-0.1977
434,86.959,1.5366,-0.1978
435,87.033,1.5373,-0.1978
436,87.181,1.5381,-0.1979
437,87.230,1.5388,-0.1981
438,87.254,1.5395,-0.1983
439,87.328,1.5403,-0.1984
440,87.426,1.5411,-0.1985
441,87.451,1.5418,-0.1986
442,87.599,1.5425,-0.1988
443,87.599,1.5433,-0.1989
444,87.722,1.5440,-0.1991
445,87.845,1.5448,-0.1992
446,87.894,1.5455,-0.1993
447,87.894,1.5462,-0.1996
448,87.992,1.5470,-0.1996
449,88.017,1.5477,-0.1998
450,88.140,1.5484,-0.1999
451,88.238,1.5491,-0.2
452,88.287,1.5499,-0.2001
453,88.336,1.5506,-0.2002
454,88.386,1.5513,-0.2002
455,88.484,1.5521,-0.2004
456,88.558,1.5528,-0.2004
457,88.607,1.5535,-0.2006
458,88.681,1.5542,-0.2007
459,88.754,1.5549,-0.2009
460,88.779,1.5556,-0.201
461,88.853,1.5563,-0.2011
462,88.902,1.5571,-0.2013
463,89.000,1.5578,-0.2013
464,89.025,1.5585,-0.2014
465,89.074,1.5592,-0.2016
466,89.173,1.5599,-0.2017
467,89.222,1.5606,-0.2017
468,89.320,1.5613,-0.202
469,89.320,1.5620,-0.2021
470,89.418,1.5627,-0.2021
471,89.492,1.5635,-0.2021
472,89.591,1.5642,-0.2023
473,89.615,1.5649,-0.2025
474,89.640,1.5655,-0.2026
475,89.714,1.5662,-0.2026
476,89.689,1.5670,-0.2027
477,89.812,1.5677,-0.2028
478,89.861,1.5683,-0.203
479,89.910,1.5690,-0.2031
480,89.984,1.5697,-0.203
481,90.033,1.5704,-0.2032
482,90.082,1.5711,-0.2032
483,90.107,1.5718,-0.2033
484,90.156,1.5724,-0.2035
485,90.230,1.5731,-0.2035
486,90.328,1.5738,-0.2037
487,90.353,1.5745,-0.2038
488,90.427,1.5752,-0.2039
489,90.402,1.5759,-0.2039
490,90.476,1.5765,-0.2041
491,90.550,1.5772,-0.2042
492,90.599,1.5779,-0.2043
493,90.648,1.5786,-0.2042
494,90.722,1.5792,-0.2044
495,90.746,1.5799,-0.2043
496,90.796,1.5806,-0.2044
497,90.820,1.5813,-0.2045
498,90.919,1.5820,-0.2046
499,90.968,1.5826,-0.2047
500,90.968,1.5832,-0.2048
