current[mA],power[mW],voltage[V],mpd_current[mA]
1,-0.025,0.7682,-8.364e-05
2,-0.000,0.7856,-9.97e-05
3,-0.025,0.7980,-0.0001137
4,-0.049,0.8086,-0.0001296
5,-0.025,0.8180,-0.0001439
6,0.049,0.8259,-0.0001578
7,0.025,0.8333,-0.0001727
8,-0.000,0.8401,-0.000188
9,0.025,0.8462,-0.0002041
10,0.025,0.8521,-0.0002219
11,0.049,0.8578,-0.0002408
12,0.025,0.8630,-0.0002612
13,0.025,0.8682,-0.0002845
14,0.098,0.8730,-0.0003109
15,0.074,0.8777,-0.0003444
16,0.320,0.8816,-0.0008018
17,0.787,0.8844,-0.001805
18,1.254,0.8872,-0.002821
19,1.746,0.8900,-0.003819
20,2.238,0.8929,-0.004798
21,2.681,0.8957,-0.005751
22,3.074,0.8986,-0.006712
23,3.541,0.9014,-0.007696
24,4.033,0.9042,-0.008668
25,4.427,0.9071,-0.009598
26,4.820,0.9100,-0.01057
27,5.287,0.9128,-0.0115
28,5.730,0.9157,-0.01247
29,6.148,0.9185,-0.01341
30,6.517,0.9213,-0.01437
31,6.960,0.9242,-0.01529
32,7.402,0.9269,-0.01623
33,7.771,0.9297,-0.01713
34,8.165,0.9325,-0.01807
35,8.607,0.9353,-0.01898
36,8.976,0.9380,-0.01991
37,9.394,0.9408,-0.02083
38,9.739,0.9435,-0.02173
39,10.181,0.9462,-0.02264
40,10.599,0.9489,-0.02357
41,10.919,0.9516,-0.02444
42,11.386,0.9543,-0.02536
43,11.731,0.9570,-0.02625
44,12.099,0.9597,-0.02716
45,12.493,0.9624,-0.02807
46,12.886,0.9651,-0.02898
47,13.329,0.9676,-0.02984
48,13.698,0.9702,-0.03074
49,14.042,0.9729,-0.03164
50,14.411,0.9755,-0.03251
51,14.829,0.9781,-0.03341
52,15.174,0.9807,-0.03429
53,15.518,0.9832,-0.0352
54,15.911,0.9858,-0.03608
55,16.354,0.9883,-0.03698
56,16.624,0.9909,-0.03785
57,17.067,0.9934,-0.03868
58,17.436,0.9959,-0.03958
59,17.780,0.9984,-0.04044
60,18.174,1.0009,-0.04131
61,18.543,1.0034,-0.04219
62,18.862,1.0058,-0.04307
63,19.280,1.0082,-0.04389
64,19.649,1.0107,-0.0448
65,19.944,1.0131,-0.04563
66,20.338,1.0156,-0.04649
67,20.731,1.0179,-0.04732
68,21.051,1.0203,-0.0482
69,21.420,1.0227,-0.04904
70,21.740,1.0251,-0.04991
71,22.182,1.0274,-0.0507
72,22.478,1.0298,-0.05157
73,22.846,1.0321,-0.05236
74,23.240,1.0344,-0.05324
75,23.560,1.0368,-0.05409
76,23.904,1.0391,-0.05488
77,24.273,1.0414,-0.05572
78,24.592,1.0436,-0.05653
79,24.912,1.0459,-0.05738
80,25.330,1.0482,-0.0582
81,25.650,1.0504,-0.059
82,26.043,1.0526,-0.05981
83,26.339,1.0548,-0.06071
84,26.707,1.0571,-0.06151
85,26.978,1.0593,-0.06233
86,27.371,1.0615,-0.06315
87,27.716,1.0637,-0.06395
88,28.085,1.0659,-0.06473
89,28.380,1.0681,-0.06559
90,28.798,1.0702,-0.06643
91,29.044,1.0724,-0.06717
92,29.413,1.0745,-0.06801
93,29.757,1.0767,-0.06875
94,30.101,1.0788,-0.06956
95,30.421,1.0809,-0.07039
96,30.765,1.0831,-0.07111
97,31.085,1.0851,-0.07195
98,31.405,1.0873,-0.07276
99,31.749,1.0894,-0.07352
100,32.118,1.0915,-0.07427
101,32.388,1.0935,-0.07503
102,32.733,1.0955,-0.07588
103,33.028,1.0976,-0.07666
104,33.397,1.0996,-0.07743
105,33.692,1.1017,-0.07821
106,34.036,1.1036,-0.07896
107,34.356,1.1056,-0.07976
108,34.626,1.1076,-0.08049
109,34.971,1.1097,-0.08124
110,35.339,1.1116,-0.08198
111,35.635,1.1136,-0.08274
112,35.905,1.1156,-0.08353
113,36.299,1.1176,-0.08428
114,36.594,1.1195,-0.08503
115,36.889,1.1214,-0.08578
116,37.233,1.1234,-0.08652
117,37.528,1.1253,-0.08725
118,37.872,1.1272,-0.088
119,38.168,1.1291,-0.08878
120,38.438,1.1310,-0.08948
121,38.782,1.1329,-0.09016
122,39.102,1.1348,-0.09094
123,39.422,1.1366,-0.09166
124,39.692,1.1385,-0.09239
125,40.012,1.1404,-0.09311
126,40.307,1.1422,-0.0939
127,40.651,1.1441,-0.09458
128,40.922,1.1459,-0.09528
129,41.168,1.1478,-0.09597
130,41.561,1.1496,-0.09673
131,41.832,1.1514,-0.09751
132,42.176,1.1532,-0.09827
133,42.447,1.1550,-0.0989
134,42.717,1.1568,-0.09958
135,43.037,1.1586,-0.1003
136,43.283,1.1604,-0.101
137,43.603,1.1622,-0.1016
138,43.922,1.1639,-0.1023
139,44.217,1.1657,-0.103
140,44.463,1.1675,-0.1038
141,44.783,1.1692,-0.1044
142,45.103,1.1709,-0.105
143,45.373,1.1727,-0.1058
144,45.668,1.1744,-0.1065
145,45.890,1.1761,-0.1073
146,46.259,1.1778,-0.1078
147,46.480,1.1795,-0.1085
148,46.800,1.1812,-0.1093
149,47.070,1.1829,-0.1099
150,47.341,1.1846,-0.1106
151,47.611,1.1863,-0.1112
152,47.955,1.1880,-0.1119
153,48.226,1.1896,-0.1126
154,48.496,1.1913,-0.1133
155,48.767,1.1929,-0.1139
156,49.087,1.1946,-0.1146
157,49.357,1.1963,-0.1153
158,49.628,1.1979,-0.1158
159,49.849,1.1996,-0.1164
160,50.120,1.2012,-0.1172
161,50.415,1.2028,-0.1179
162,50.685,1.2045,-0.1185
163,51.005,1.2060,-0.1192
164,51.275,1.2076,-0.1198
165,51.521,1.2092,-0.1205
166,51.816,1.2108,-0.1211
167,52.062,1.2124,-0.1217
168,52.308,1.2141,-0.1223
169,52.603,1.2156,-0.1231
170,52.898,1.2172,-0.1236
171,53.144,1.2188,-0.1242
172,53.390,1.2203,-0.1249
173,53.685,1.2219,-0.1256
174,53.981,1.2235,-0.1261
175,54.226,1.2250,-0.1267
176,54.448,1.2266,-0.1273
177,54.669,1.2281,-0.128
178,55.013,1.2297,-0.1286
179,55.284,1.2312,-0.1292
180,55.530,1.2327,-0.1298
181,55.727,1.2342,-0.1304
182,56.071,1.2357,-0.131
183,56.292,1.2373,-0.1316
184,56.538,1.2388,-0.1322
185,56.735,1.2403,-0.1329
186,56.981,1.2417,-0.1335
187,57.251,1.2432,-0.1341
188,57.497,1.2447,-0.1346
189,57.768,1.2462,-0.1353
190,58.014,1.2477,-0.1358
191,58.235,1.2491,-0.1364
192,58.555,1.2507,-0.137
193,58.727,1.2521,-0.1376
194,58.997,1.2536,-0.1381
195,59.268,1.2550,-0.1388
196,59.538,1.2564,-0.1393
197,59.711,1.2579,-0.1399
198,59.932,1.2593,-0.1405
199,60.252,1.2608,-0.141
200,60.473,1.2622,-0.1416
201,60.744,1.2637,-0.1422
202,60.989,1.2651,-0.1429
203,61.186,1.2665,-0.1434
204,61.457,1.2679,-0.144
205,61.678,1.2694,-0.1446
206,61.924,1.2708,-0.1451
207,62.170,1.2722,-0.1457
208,62.391,1.2736,-0.1462
209,62.637,1.2750,-0.1468
210,62.932,1.2764,-0.1473
211,63.104,1.2777,-0.1478
212,63.301,1.2792,-0.1485
213,63.572,1.2806,-0.1489
214,63.818,1.2819,-0.1495
215,64.064,1.2833,-0.1501
216,64.285,1.2847,-0.1506
217,64.506,1.2860,-0.1511
218,64.728,1.2874,-0.1516
219,64.973,1.2887,-0.1522
220,65.269,1.2901,-0.1527
221,65.416,1.2914,-0.1532
222,65.662,1.2927,-0.1538
223,65.859,1.2941,-0.1544
224,66.080,1.2954,-0.1549
225,66.326,1.2967,-0.1554
226,66.449,1.2981,-0.1559
227,66.744,1.2994,-0.1565
228,66.990,1.3007,-0.157
229,67.162,1.3021,-0.1575
230,67.433,1.3034,-0.1581
231,67.629,1.3047,-0.1584
232,67.900,1.3060,-0.1589
233,68.072,1.3074,-0.1595
234,68.293,1.3087,-0.16
235,68.564,1.3099,-0.1605
236,68.712,1.3113,-0.161
237,68.957,1.3126,-0.1616
238,69.154,1.3139,-0.1621
239,69.449,1.3152,-0.1626
240,69.646,1.3165,-0.1631
241,69.843,1.3177,-0.1636
242,70.064,1.3190,-0.1641
243,70.236,1.3203,-0.1647
244,70.458,1.3216,-0.1651
245,70.630,1.3229,-0.1655
246,70.802,1.3241,-0.1661
247,71.097,1.3254,-0.1666
248,71.245,1.3266,-0.167
249,71.466,1.3279,-0.1674
250,71.663,1.3291,-0.1681
251,71.933,1.3304,-0.1685
252,72.105,1.3317,-0.1689
253,72.351,1.3329,-0.1694
254,72.474,1.3341,-0.1699
255,72.745,1.3354,-0.1704
256,72.917,1.3366,-0.1708
257,73.138,1.3378,-0.1713
258,73.310,1.3390,-0.1718
259,73.507,1.3403,-0.1722
260,73.728,1.3415,-0.1727
261,73.950,1.3427,-0.1731
262,74.122,1.3439,-0.1736
263,74.294,1.3452,-0.174
264,74.466,1.3464,-0.1745
265,74.737,1.3476,-0.175
266,74.884,1.3488,-0.1755
267,75.130,1.3500,-0.176
268,75.302,1.3512,-0.1764
269,75.450,1.3524,-0.1768
270,75.622,1.3536,-0.1773
271,75.893,1.3548,-0.1777
272,76.040,1.3560,-0.1782
273,76.237,1.3572,-0.1787
274,76.434,1.3584,-0.1791
275,76.630,1.3596,-0.1795
276,76.827,1.3607,-0.18
277,77.024,1.3619,-0.1805
278,77.221,1.3631,-0.1809
279,77.343,1.3643,-0.1813
280,77.565,1.3655,-0.1817
281,77.737,1.3666,-0.1821
282,77.934,1.3678,-0.1826
283,78.106,1.3690,-0.1829
284,78.303,1.3701,-0.1835
285,78.450,1.3713,-0.1837
286,78.598,1.3724,-0.1842
287,78.868,1.3735,-0.1847
288,79.016,1.3747,-0.1851
289,79.139,1.3758,-0.1854
290,79.385,1.3770,-0.1859
291,79.532,1.3781,-0.1864
292,79.729,1.3792,-0.1868
293,79.852,1.3804,-0.1872
294,80.098,1.3815,-0.1876
295,80.270,1.3826,-0.188
296,80.393,1.3838,-0.1885
297,80.565,1.3849,-0.1888
298,80.811,1.3860,-0.1891
299,80.909,1.3871,-0.1896
300,81.155,1.3883,-0.19
301,81.303,1.3894,-0.1905
302,81.475,1.3905,-0.1909
303,81.623,1.3916,-0.1912
304,81.844,1.3927,-0.1916
305,81.942,1.3939,-0.1919
306,82.188,1.3950,-0.1924
307,82.262,1.3961,-0.1928
308,82.434,1.3972,-0.1931
309,82.655,1.3983,-0.1936
310,82.803,1.3994,-0.1939
311,82.975,1.4005,-0.1942
312,83.123,1.4016,-0.1946
313,83.295,1.4026,-0.1951
314,83.516,1.4037,-0.1954
315,83.615,1.4048,-0.1958
316,83.836,1.4059,-0.1963
317,83.934,1.4070,-0.1968
318,84.106,1.4081,-0.197
319,84.303,1.4092,-0.1973
320,84.451,1.4103,-0.1977
321,84.574,1.4113,-0.1981
322,84.746,1.4124,-0.1983
323,84.918,1.4135,-0.1988
324,85.090,1.4145,-0.199
325,85.262,1.4156,-0.1994
326,85.336,1.4166,-0.1999
327,85.557,1.4177,-0.2002
328,85.656,1.4187,-0.2006
329,85.828,1.4198,-0.201
330,86.000,1.4208,-0.2014
331,86.148,1.4219,-0.2016
332,86.344,1.4229,-0.2021
333,86.443,1.4240,-0.2025
334,86.664,1.4250,-0.2029
335,86.762,1.4261,-0.2031
336,86.935,1.4271,-0.2034
337,87.008,1.4281,-0.2036
338,87.205,1.4292,-0.204
339,87.402,1.4302,-0.2043
340,87.500,1.4312,-0.2047
341,87.623,1.4323,-0.205
342,87.795,1.4333,-0.2055
343,87.869,1.4343,-0.2058
344,88.115,1.4353,-0.2062
345,88.213,1.4364,-0.2066
346,88.336,1.4374,-0.2069
347,88.533,1.4384,-0.2071
348,88.656,1.4394,-0.2075
349,88.804,1.4405,-0.2078
350,88.927,1.4414,-0.2081
351,89.000,1.4424,-0.2083
352,89.173,1.4434,-0.2086
353,89.295,1.4445,-0.209
354,89.492,1.4455,-0.2093
355,89.640,1.4465,-0.2097
356,89.812,1.4475,-0.21
357,89.910,1.4484,-0.2104
358,90.009,1.4495,-0.2108
359,90.205,1.4504,-0.2111
360,90.328,1.4514,-0.2115
361,90.451,1.4524,-0.2119
362,90.525,1.4534,-0.2121
363,90.796,1.4544,-0.2122
364,90.869,1.4554,-0.2125
365,90.943,1.4563,-0.2128
366,91.115,1.4573,-0.2131
367,91.238,1.4583,-0.2133
368,91.361,1.4593,-0.2136
369,91.533,1.4603,-0.214
370,91.656,1.4612,-0.2142
371,91.779,1.4622,-0.2146
372,91.829,1.4632,-0.215
373,92.025,1.4641,-0.2153
374,92.173,1.4651,-0.2156
375,92.271,1.4660,-0.2159
376,92.370,1.4670,-0.2161
377,92.542,1.4680,-0.2165
378,92.615,1.4689,-0.2167
379,92.738,1.4699,-0.2168
380,92.935,1.4708,-0.217
381,92.984,1.4718,-0.2172
382,93.132,1.4727,-0.2176
383,93.304,1.4737,-0.2178
384,93.378,1.4746,-0.2182
385,93.501,1.4756,-0.2186
386,93.673,1.4765,-0.2189
387,93.771,1.4774,-0.2192
388,93.845,1.4784,-0.2196
389,93.968,1.4793,-0.2197
390,94.042,1.4803,-0.22
391,94.214,1.4812,-0.2202
392,94.312,1.4821,-0.2204
393,94.485,1.4830,-0.2206
394,94.632,1.4839,-0.2209
395,94.706,1.4849,-0.221
396,94.730,1.4858,-0.2213
397,94.952,1.4867,-0.2216
398,95.075,1.4876,-0.2219
399,95.099,1.4886,-0.2221
400,95.198,1.4895,-0.2225
401,95.419,1.4904,-0.2228
402,95.542,1.4913,-0.2232
403,95.567,1.4922,-0.2235
404,95.788,1.4931,-0.2236
405,95.837,1.4940,-0.2239
406,95.862,1.4950,-0.2239
407,96.083,1.4959,-0.2242
408,96.157,1.4968,-0.2244
409,96.255,1.4977,-0.2245
410,96.354,1.4986,-0.2248
411,96.452,1.4995,-0.2251
412,96.526,1.5004,-0.2254
413,96.698,1.5013,-0.2257
414,96.796,1.5022,-0.2258
415,96.895,1.5030,-0.2262
416,97.042,1.5039,-0.2265
417,97.042,1.5048,-0.2267
418,97.165,1.5057,-0.2268
419,97.239,1.5066,-0.2271
420,97.362,1.5074,-0.2273
421,97.509,1.5083,-0.2275
422,97.632,1.5092,-0.2277
423,97.682,1.5101,-0.2279
424,97.780,1.5110,-0.228
425,97.878,1.5118,-0.2284
426,97.952,1.5127,-0.2286
427,98.100,1.5136,-0.2289
428,98.173,1.5144,-0.2292
429,98.296,1.5153,-0.2293
430,98.395,1.5162,-0.2296
431,98.469,1.5170,-0.2297
432,98.616,1.5179,-0.23
433,98.690,1.5187,-0.2301
434,98.764,1.5196,-0.2303
435,98.862,1.5204,-0.2306
436,98.960,1.5213,-0.2307
437,99.034,1.5221,-0.2309
438,99.133,1.5230,-0.2312
439,99.255,1.5238,-0.2312
440,99.329,1.5247,-0.2317
441,99.403,1.5255,-0.2319
442,99.526,1.5264,-0.2319
443,99.600,1.5272,-0.2322
444,99.698,1.5280,-0.2323
445,99.821,1.5289,-0.2325
446,99.846,1.5297,-0.2328
447,99.944,1.5306,-0.2329
448,100.092,1.5314,-0.2332
449,100.141,1.5322,-0.2332
450,100.215,1.5331,-0.2335
451,100.288,1.5339,-0.2337
452,100.436,1.5347,-0.234
453,100.436,1.5356,-0.2341
454,100.534,1.5364,-0.2343
455,100.633,1.5372,-0.2345
456,100.731,1.5380,-0.2347
457,100.756,1.5389,-0.2349
458,100.829,1.5396,-0.2349
459,100.977,1.5405,-0.235
460,101.026,1.5413,-0.2351
461,101.124,1.5421,-0.2354
462,101.174,1.5429,-0.2356
463,101.321,1.5437,-0.236
464,101.346,1.5445,-0.236
465,101.420,1.5453,-0.2361
466,101.567,1.5461,-0.2365
467,101.567,1.5470,-0.2366
468,101.666,1.5477,-0.2367
469,101.690,1.5485,-0.2369
470,101.739,1.5493,-0.237
471,101.887,1.5501,-0.2371
472,101.936,1.5509,-0.2374
473,102.010,1.5517,-0.2373
474,102.133,1.5525,-0.2376
475,102.157,1.5533,-0.2378
476,102.231,1.5541,-0.2382
477,102.280,1.5549,-0.2382
478,102.428,1.5557,-0.2385
479,102.477,1.5564,-0.2385
480,102.477,1.5572,-0.2385
481,102.600,1.5580,-0.2387
482,102.698,1.5588,-0.2388
483,102.723,1.5596,-0.2388
484,102.772,1.5603,-0.2391
485,102.846,1.5611,-0.2391
486,102.969,1.5619,-0.2394
487,103.018,1.5627,-0.2395
488,103.067,1.5634,-0.2398
489,103.141,1.5642,-0.24
490,103.239,1.5650,-0.2401
491,103.313,1.5657,-0.2404
492,103.412,1.5665,-0.2403
493,103.412,1.5672,-0.2405
494,103.461,1.5680,-0.2404
495,103.584,1.5688,-0.2407
496,103.584,1.5695,-0.2405
497,103.657,1.5702,-0.2406
498,103.731,1.5710,-0.2409
499,103.780,1.5717,-0.241
500,103.854,1.5725,-0.2412
