current[mA],power[mW],voltage[V],mpd_current[mA]
1,-0.000,0.7602,-7.743e-05
2,0.025,0.7796,-9.247e-05
3,-0.000,0.7935,-0.0001058
4,-0.000,0.8049,-0.0001198
5,-0.000,0.8146,-0.0001331
6,-0.025,0.8229,-0.0001466
7,-0.000,0.8308,-0.0001608
8,0.025,0.8381,-0.0001755
9,-0.000,0.8446,-0.0001911
10,0.025,0.8508,-0.0002088
11,0.025,0.8568,-0.0002275
12,0.074,0.8622,-0.0002494
13,0.098,0.8676,-0.0003194
14,0.418,0.8714,-0.001312
15,0.836,0.8747,-0.002593
16,1.279,0.8780,-0.003927
17,1.623,0.8814,-0.005232
18,2.115,0.8847,-0.006493
19,2.484,0.8881,-0.007769
20,2.926,0.8913,-0.00905
21,3.345,0.8946,-0.01035
22,3.689,0.8979,-0.01161
23,4.131,0.9011,-0.01288
24,4.525,0.9042,-0.01412
25,4.918,0.9075,-0.01539
26,5.312,0.9107,-0.01663
27,5.730,0.9137,-0.01787
28,6.197,0.9169,-0.01909
29,6.517,0.9200,-0.02035
30,6.960,0.9231,-0.02159
31,7.353,0.9262,-0.02282
32,7.747,0.9292,-0.02406
33,8.115,0.9322,-0.02525
34,8.509,0.9353,-0.02643
35,8.878,0.9382,-0.02763
36,9.247,0.9412,-0.02884
37,9.640,0.9442,-0.03007
38,9.984,0.9471,-0.03125
39,10.452,0.9500,-0.03245
40,10.821,0.9530,-0.03367
41,11.116,0.9558,-0.0348
42,11.583,0.9587,-0.03606
43,11.878,0.9616,-0.0372
44,12.296,0.9644,-0.03838
45,12.665,0.9672,-0.03958
46,13.059,0.9701,-0.04078
47,13.452,0.9728,-0.04191
48,13.821,0.9755,-0.0431
49,14.116,0.9784,-0.04426
50,14.534,0.9810,-0.04546
51,14.928,0.9838,-0.04664
52,15.272,0.9865,-0.04781
53,15.641,0.9891,-0.04893
54,16.034,0.9919,-0.05006
55,16.305,0.9945,-0.05116
56,16.723,0.9971,-0.05229
57,17.116,0.9997,-0.05343
58,17.461,1.0024,-0.05456
59,17.854,1.0049,-0.05566
60,18.174,1.0075,-0.0568
61,18.543,1.0101,-0.05788
62,18.887,1.0126,-0.05896
63,19.256,1.0151,-0.06007
64,19.625,1.0176,-0.06122
65,19.944,1.0200,-0.06223
66,20.313,1.0225,-0.06333
67,20.633,1.0250,-0.06447
68,21.027,1.0275,-0.0655
69,21.395,1.0299,-0.06661
70,21.740,1.0323,-0.06771
71,22.035,1.0347,-0.06876
72,22.355,1.0371,-0.06986
73,22.748,1.0394,-0.07086
74,23.068,1.0418,-0.07197
75,23.387,1.0442,-0.07303
76,23.732,1.0464,-0.07407
77,24.076,1.0488,-0.07513
78,24.371,1.0511,-0.0762
79,24.765,1.0534,-0.07723
80,25.109,1.0556,-0.07828
81,25.429,1.0579,-0.07934
82,25.724,1.0601,-0.08037
83,26.068,1.0624,-0.08144
84,26.388,1.0646,-0.08246
85,26.757,1.0668,-0.08354
86,27.076,1.0690,-0.0845
87,27.396,1.0712,-0.08554
88,27.691,1.0733,-0.08647
89,28.035,1.0754,-0.08752
90,28.355,1.0776,-0.0885
91,28.699,1.0797,-0.0895
92,29.044,1.0818,-0.09046
93,29.314,1.0840,-0.09149
94,29.634,1.0860,-0.09242
95,29.978,1.0882,-0.0934
96,30.273,1.0902,-0.0944
97,30.568,1.0923,-0.09536
98,30.937,1.0943,-0.09625
99,31.183,1.0963,-0.09726
100,31.528,1.0983,-0.09823
101,31.872,1.1004,-0.09917
102,32.142,1.1024,-0.1002
103,32.462,1.1043,-0.1011
104,32.782,1.1063,-0.1021
105,33.052,1.1083,-0.1031
106,33.372,1.1103,-0.104
107,33.716,1.1122,-0.105
108,33.987,1.1142,-0.1059
109,34.356,1.1161,-0.1069
110,34.602,1.1181,-0.1078
111,34.946,1.1199,-0.1087
112,35.167,1.1218,-0.1096
113,35.512,1.1238,-0.1106
114,35.807,1.1257,-0.1115
115,36.126,1.1275,-0.1124
116,36.372,1.1294,-0.1134
117,36.717,1.1312,-0.1142
118,36.963,1.1330,-0.115
119,37.331,1.1349,-0.116
120,37.528,1.1367,-0.1169
121,37.848,1.1385,-0.1177
122,38.094,1.1403,-0.1186
123,38.389,1.1421,-0.1194
124,38.733,1.1439,-0.1203
125,39.028,1.1457,-0.1212
126,39.250,1.1474,-0.1221
127,39.545,1.1492,-0.123
128,39.864,1.1510,-0.1238
129,40.184,1.1527,-0.1248
130,40.430,1.1545,-0.1256
131,40.676,1.1562,-0.1265
132,40.971,1.1578,-0.1273
133,41.242,1.1595,-0.1283
134,41.561,1.1613,-0.1291
135,41.758,1.1630,-0.13
136,42.053,1.1647,-0.1308
137,42.348,1.1663,-0.1316
138,42.594,1.1680,-0.1324
139,42.939,1.1697,-0.1332
140,43.184,1.1714,-0.1341
141,43.455,1.1730,-0.1349
142,43.676,1.1746,-0.1357
143,43.971,1.1762,-0.1365
144,44.267,1.1779,-0.1372
145,44.537,1.1795,-0.1381
146,44.808,1.1811,-0.1388
147,45.053,1.1827,-0.1396
148,45.299,1.1843,-0.1405
149,45.570,1.1859,-0.1412
150,45.767,1.1875,-0.1421
151,46.062,1.1891,-0.143
152,46.283,1.1906,-0.1438
153,46.578,1.1923,-0.1445
154,46.849,1.1938,-0.1454
155,47.095,1.1954,-0.1463
156,47.341,1.1969,-0.147
157,47.611,1.1985,-0.1478
158,47.882,1.2000,-0.1486
159,48.128,1.2015,-0.1494
160,48.423,1.2030,-0.1502
161,48.644,1.2045,-0.1508
162,48.915,1.2060,-0.1516
163,49.062,1.2075,-0.1523
164,49.382,1.2090,-0.1531
165,49.652,1.2105,-0.1539
166,49.898,1.2120,-0.1545
167,50.144,1.2134,-0.1553
168,50.415,1.2149,-0.156
169,50.611,1.2164,-0.1568
170,50.857,1.2179,-0.1575
171,51.128,1.2193,-0.1583
172,51.349,1.2208,-0.159
173,51.570,1.2223,-0.1598
174,51.866,1.2237,-0.1606
175,52.038,1.2251,-0.1612
176,52.308,1.2265,-0.1619
177,52.530,1.2280,-0.1628
178,52.751,1.2294,-0.1634
179,53.021,1.2308,-0.1642
180,53.243,1.2322,-0.165
181,53.489,1.2336,-0.1657
182,53.710,1.2350,-0.1664
183,53.956,1.2364,-0.1671
184,54.202,1.2377,-0.1678
185,54.423,1.2391,-0.1685
186,54.669,1.2405,-0.169
187,54.866,1.2419,-0.1697
188,55.112,1.2432,-0.1704
189,55.333,1.2446,-0.1711
190,55.554,1.2459,-0.1717
191,55.776,1.2473,-0.1725
192,56.022,1.2487,-0.1732
193,56.292,1.2500,-0.1738
194,56.440,1.2513,-0.1744
195,56.637,1.2527,-0.1751
196,56.858,1.2540,-0.1758
197,57.128,1.2553,-0.1765
198,57.350,1.2566,-0.1773
199,57.497,1.2579,-0.1779
200,57.743,1.2592,-0.1787
201,57.989,1.2606,-0.1793
202,58.235,1.2618,-0.1801
203,58.456,1.2631,-0.1806
204,58.604,1.2644,-0.1813
205,58.825,1.2657,-0.1819
206,59.071,1.2670,-0.1826
207,59.293,1.2683,-0.1831
208,59.489,1.2695,-0.1839
209,59.711,1.2708,-0.1845
210,59.957,1.2721,-0.1849
211,60.080,1.2734,-0.1855
212,60.276,1.2746,-0.1863
213,60.571,1.2759,-0.1868
214,60.694,1.2771,-0.1875
215,61.014,1.2784,-0.188
216,61.211,1.2796,-0.1887
217,61.358,1.2809,-0.1894
218,61.580,1.2821,-0.1901
219,61.801,1.2833,-0.1907
220,62.047,1.2845,-0.1915
221,62.194,1.2858,-0.1921
222,62.391,1.2870,-0.1927
223,62.539,1.2882,-0.1933
224,62.809,1.2894,-0.194
225,63.006,1.2906,-0.1945
226,63.203,1.2918,-0.1951
227,63.424,1.2930,-0.1956
228,63.621,1.2942,-0.1961
229,63.793,1.2954,-0.1967
230,63.990,1.2966,-0.1972
231,64.211,1.2978,-0.1978
232,64.408,1.2990,-0.1983
233,64.555,1.3002,-0.199
234,64.777,1.3013,-0.1994
235,64.998,1.3025,-0.2001
236,65.170,1.3037,-0.2007
237,65.342,1.3049,-0.2014
238,65.564,1.3060,-0.202
239,65.810,1.3072,-0.2026
240,65.957,1.3083,-0.2033
241,66.178,1.3095,-0.2039
242,66.301,1.3106,-0.2044
243,66.523,1.3118,-0.205
244,66.744,1.3130,-0.2056
245,66.867,1.3141,-0.206
246,67.064,1.3152,-0.2067
247,67.261,1.3164,-0.2071
248,67.482,1.3175,-0.2075
249,67.629,1.3186,-0.208
250,67.826,1.3197,-0.2086
251,67.998,1.3208,-0.2091
252,68.170,1.3219,-0.2097
253,68.367,1.3231,-0.2103
254,68.539,1.3242,-0.2108
255,68.785,1.3253,-0.2115
256,68.859,1.3264,-0.2119
257,69.031,1.3275,-0.2125
258,69.253,1.3286,-0.2132
259,69.474,1.3297,-0.2137
260,69.621,1.3308,-0.2142
261,69.744,1.3319,-0.2149
262,70.015,1.3330,-0.2153
263,70.187,1.3340,-0.2158
264,70.285,1.3351,-0.2163
265,70.458,1.3362,-0.2168
266,70.630,1.3373,-0.2172
267,70.851,1.3384,-0.2178
268,70.999,1.3395,-0.2182
269,71.195,1.3405,-0.2186
270,71.318,1.3416,-0.2192
271,71.466,1.3427,-0.2196
272,71.663,1.3437,-0.22
273,71.884,1.3448,-0.2206
274,72.032,1.3458,-0.2211
275,72.179,1.3469,-0.2218
276,72.351,1.3479,-0.2223
277,72.548,1.3490,-0.2229
278,72.671,1.3500,-0.2233
279,72.868,1.3510,-0.2239
280,73.040,1.3521,-0.2245
281,73.138,1.3531,-0.2249
282,73.360,1.3541,-0.2253
283,73.433,1.3552,-0.2257
284,73.655,1.3562,-0.2261
285,73.851,1.3573,-0.2267
286,73.950,1.3583,-0.2271
287,74.146,1.3593,-0.2274
288,74.269,1.3603,-0.2279
289,74.442,1.3613,-0.2284
290,74.638,1.3623,-0.2288
291,74.810,1.3634,-0.2293
292,75.007,1.3644,-0.2299
293,75.081,1.3654,-0.2303
294,75.179,1.3664,-0.2309
295,75.450,1.3674,-0.2313
296,75.524,1.3684,-0.232
297,75.696,1.3694,-0.2324
298,75.868,1.3704,-0.2328
299,75.942,1.3713,-0.2333
300,76.188,1.3723,-0.2337
301,76.335,1.3733,-0.2341
302,76.409,1.3743,-0.2345
303,76.581,1.3753,-0.235
304,76.778,1.3762,-0.2352
305,76.950,1.3773,-0.2356
306,77.048,1.3782,-0.2362
307,77.196,1.3792,-0.2364
308,77.393,1.3801,-0.2369
309,77.442,1.3812,-0.2374
310,77.614,1.3821,-0.2378
311,77.835,1.3831,-0.2385
312,77.934,1.3840,-0.2388
313,78.081,1.3850,-0.2393
314,78.229,1.3860,-0.2397
315,78.376,1.3869,-0.2402
316,78.524,1.3879,-0.2406
317,78.622,1.3888,-0.241
318,78.844,1.3898,-0.2415
319,78.991,1.3907,-0.2418
320,79.114,1.3916,-0.2423
321,79.213,1.3926,-0.2425
322,79.360,1.3935,-0.2428
323,79.458,1.3945,-0.2433
324,79.631,1.3954,-0.2436
325,79.778,1.3963,-0.244
326,79.901,1.3973,-0.2444
327,80.073,1.3982,-0.2448
328,80.172,1.3991,-0.2453
329,80.245,1.4000,-0.2456
330,80.467,1.4009,-0.2461
331,80.565,1.4019,-0.2466
332,80.688,1.4028,-0.2471
333,80.860,1.4037,-0.2475
334,81.008,1.4046,-0.2478
335,81.082,1.4055,-0.2482
336,81.254,1.4064,-0.2486
337,81.426,1.4074,-0.2489
338,81.475,1.4083,-0.2493
339,81.623,1.4091,-0.2497
340,81.746,1.4100,-0.2498
341,81.893,1.4110,-0.2503
342,82.041,1.4118,-0.2507
343,82.164,1.4127,-0.251
344,82.287,1.4136,-0.2514
345,82.385,1.4145,-0.2517
346,82.557,1.4154,-0.2522
347,82.655,1.4163,-0.2525
348,82.828,1.4172,-0.2528
349,82.901,1.4181,-0.2532
350,83.000,1.4190,-0.2537
351,83.123,1.4199,-0.2539
352,83.295,1.4207,-0.2543
353,83.418,1.4217,-0.2548
354,83.541,1.4225,-0.2552
355,83.639,1.4234,-0.2556
356,83.738,1.4243,-0.2558
357,83.861,1.4251,-0.256
358,84.008,1.4260,-0.2563
359,84.156,1.4268,-0.2567
360,84.229,1.4277,-0.2569
361,84.352,1.4285,-0.2573
362,84.475,1.4294,-0.2577
363,84.574,1.4303,-0.258
364,84.697,1.4312,-0.2584
365,84.820,1.4320,-0.2587
366,84.943,1.4329,-0.2591
367,85.090,1.4337,-0.2595
368,85.164,1.4345,-0.2601
369,85.287,1.4354,-0.2603
370,85.459,1.4363,-0.2607
371,85.508,1.4371,-0.261
372,85.582,1.4379,-0.2612
373,85.705,1.4388,-0.2615
374,85.828,1.4396,-0.2618
375,85.975,1.4405,-0.262
376,86.098,1.4413,-0.2622
377,86.172,1.4421,-0.2625
378,86.320,1.4430,-0.2627
379,86.369,1.4438,-0.2631
380,86.492,1.4446,-0.2635
381,86.590,1.4454,-0.2639
382,86.713,1.4463,-0.2643
383,86.861,1.4471,-0.2645
384,86.959,1.4479,-0.265
385,87.058,1.4488,-0.2654
386,87.156,1.4495,-0.2657
387,87.254,1.4504,-0.2659
388,87.328,1.4512,-0.2662
389,87.476,1.4520,-0.2665
390,87.574,1.4528,-0.2666
391,87.672,1.4537,-0.2669
392,87.697,1.4544,-0.2671
393,87.845,1.4552,-0.2673
394,87.918,1.4560,-0.2675
395,88.066,1.4568,-0.2678
396,88.140,1.4577,-0.2682
397,88.287,1.4585,-0.2686
398,88.386,1.4592,-0.269
399,88.484,1.4601,-0.2693
400,88.533,1.4608,-0.2696
401,88.681,1.4616,-0.2699
402,88.779,1.4625,-0.2701
403,88.877,1.4632,-0.2705
404,88.951,1.4640,-0.2707
405,89.050,1.4648,-0.2709
406,89.197,1.4656,-0.271
407,89.271,1.4664,-0.2713
408,89.345,1.4672,-0.2715
409,89.394,1.4680,-0.2716
410,89.517,1.4687,-0.272
411,89.664,1.4695,-0.2723
412,89.714,1.4703,-0.2725
413,89.787,1.4710,-0.2729
414,89.861,1.4718,-0.2732
415,90.009,1.4726,-0.2734
416,90.156,1.4734,-0.2738
417,90.230,1.4742,-0.2741
418,90.205,1.4749,-0.2743
419,90.378,1.4757,-0.2745
420,90.476,1.4765,-0.2747
421,90.550,1.4772,-0.2749
422,90.599,1.4780,-0.2751
423,90.648,1.4788,-0.2753
424,90.820,1.4795,-0.2754
425,90.919,1.4803,-0.2757
426,90.992,1.4810,-0.276
427,91.042,1.4817,-0.2762
428,91.140,1.4825,-0.2764
429,91.214,1.4832,-0.2768
430,91.312,1.4840,-0.277
431,91.410,1.4848,-0.2774
432,91.533,1.4855,-0.2776
433,91.583,1.4863,-0.2779
434,91.681,1.4870,-0.2782
435,91.706,1.4877,-0.2783
436,91.853,1.4885,-0.2784
437,91.902,1.4892,-0.2788
438,92.025,1.4900,-0.279
439,92.050,1.4907,-0.2792
440,92.099,1.4914,-0.2793
441,92.247,1.4922,-0.2795
442,92.296,1.4929,-0.2798
443,92.419,1.4936,-0.28
444,92.493,1.4944,-0.2802
445,92.566,1.4951,-0.2805
446,92.591,1.4959,-0.2807
447,92.689,1.4966,-0.281
448,92.788,1.4973,-0.2811
449,92.837,1.4980,-0.2814
450,92.960,1.4987,-0.2816
451,92.984,1.4994,-0.2816
452,93.083,1.5001,-0.2819
453,93.181,1.5008,-0.282
454,93.206,1.5015,-0.2822
455,93.304,1.5023,-0.2823
456,93.378,1.5030,-0.2826
457,93.402,1.5037,-0.283
458,93.501,1.5044,-0.283
459,93.550,1.5051,-0.2834
460,93.648,1.5058,-0.2836
461,93.747,1.5066,-0.2837
462,93.821,1.5072,-0.2839
463,93.845,1.5079,-0.284
464,93.968,1.5086,-0.2844
465,93.993,1.5093,-0.2843
466,94.017,1.5101,-0.2844
467,94.091,1.5107,-0.2847
468,94.189,1.5114,-0.2848
469,94.337,1.5121,-0.2851
470,94.362,1.5128,-0.2851
471,94.362,1.5135,-0.2855
472,94.460,1.5142,-0.2858
473,94.534,1.5149,-0.2859
474,94.657,1.5156,-0.2862
475,94.706,1.5163,-0.2863
476,94.780,1.5169,-0.2864
477,94.780,1.5176,-0.2865
478,94.853,1.5183,-0.2866
479,94.927,1.5190,-0.2868
480,95.050,1.5197,-0.2867
481,95.075,1.5204,-0.2871
482,95.124,1.5210,-0.2872
483,95.222,1.5217,-0.2873
484,95.198,1.5224,-0.2877
485,95.345,1.5231,-0.2878
486,95.370,1.5237,-0.288
487,95.419,1.5244,-0.2882
488,95.493,1.5251,-0.2883
489,95.591,1.5257,-0.2886
490,95.616,1.5264,-0.2887
491,95.690,1.5271,-0.2888
492,95.739,1.5278,-0.2889
493,95.788,1.5284,-0.289
494,95.862,1.5291,-0.2891
495,95.911,1.5297,-0.2892
496,95.985,1.5304,-0.2895
497,95.985,1.5311,-0.2895
498,96.083,1.5317,-0.2896
499,96.157,1.5324,-0.29
500,96.206,1.5330,-0.29
